//b channel integrated photon spectrum
MASS	Energy Spectrum
5.0	0.0
6.0	0.1805021996067063
8.0	0.509434386912625
10.0	0.8731453242696352
15.0	1.6320448737595097
20.0	2.778316319111049
25.0	3.1984271750947064
30.0	4.280787811775338
40.0	6.254827675594537
50.0	6.95883981455799
60.0	8.609016856375673
70.0	9.48562221060421
80.0	11.453775329891036
90.0	12.508192038195412
100.0	13.61229671902596
110.0	13.596301135786904
120.0	14.742041640429594
130.0	15.929225952593454
140.0	15.934703177867299
150.0	17.15813240652977
160.0	18.40580636062979
180.0	19.71067167450169
200.0	21.054719082129694
220.0	21.123088274784855
240.0	22.512825009803088
260.0	23.92464261460272
280.0	24.005121049375965
300.0	25.457193686188454
330.0	26.990113973348688
360.0	28.550154354547445
400.0	30.18331674365685
450.0	31.912741045596306
500.0	32.138285926437284
550.0	33.89029434048458
600.0	35.68302113757292
650.0	37.496812854547684
700.0	37.728015149817324
750.0	39.56570540408471
800.0	41.419225611606954
900.0	43.52162867943504
1000.0	45.791193848844955
1100.0	46.08168869171677
1200.0	48.187813737575055
1300.0	50.322291280298934
1500.0	52.84767956267791
1700.0	55.35979588641158
2000.0	59.97334885924031
2500.0	63.43352900956306
3000.0	68.56873357999
4000.0	76.73541429185741
5000.0	81.07937758674788
6000.0	86.94915622750402
7000.0	90.83937351561907
8000.0	96.28718566285747
9000.0	99.88586360021483
10000.0	104.72410638874143
12000.0	108.35912302596303
15000.0	116.1144525190063
20000.0	127.34905701377554
30000.0	142.49714127650054
50000.0	163.99870430079937
100000.0	198.66771986616686
