//h channel integrated photon spectrum
MASS	Energy Spectrum
5.0	0.0
6.0	0.0
8.0	0.0
10.0	0.0
15.0	0.0
20.0	0.0
25.0	0.0
30.0	0.0
40.0	0.0
50.0	0.0
60.0	0.0
70.0	0.0
80.0	0.0
90.0	0.0
100.0	0.0
110.0	0.0
120.0	0.0
130.0	15.939359486959715
140.0	15.782229582465543
150.0	17.230866099184766
160.0	18.733371561413207
180.0	20.184967355978696
200.0	21.705812057243385
220.0	21.58472203872431
240.0	23.169211779837255
260.0	24.766759985152845
280.0	24.705444297679882
300.0	26.33024185270703
330.0	27.94894268339691
360.0	29.567874443957948
400.0	31.18204222047178
450.0	32.78565743812967
500.0	32.77722971638117
550.0	34.39211871521503
600.0	35.98521405382328
650.0	37.54704700049998
700.0	37.581068171522546
750.0	39.122369519812544
800.0	40.60900076819691
900.0	42.10791110728667
1000.0	43.67362706926122
1100.0	43.677850399029666
1200.0	45.08779627598776
1300.0	46.4308642245374
1500.0	47.83646221732062
1700.0	49.193176921213144
2000.0	51.55624668051455
2500.0	53.0606564013774
3000.0	55.24440615146769
4000.0	58.23738017062023
5000.0	59.8270734191287
6000.0	61.65087342641759
7000.0	62.948453266482986
8000.0	64.32903987251505
9000.0	65.39340985169919
10000.0	67.67161719148037
12000.0	68.15739929645986
15000.0	70.52592840240757
20000.0	73.93301498352743
30000.0	79.92759117891576
50000.0	89.73457686496128
100000.0	108.06222493395396
